NPP VIIRS Band Averaged Relative Spectral Response from Northrop Grumman October 2011 release to govt team.
    WL(um)      RSR
    0.3941    0.005307
    0.3942    0.005835
    0.3943    0.006364
    0.3944    0.006892
    0.3945    0.007421
    0.3946    0.007949
    0.3947    0.008706
    0.3948    0.009652
    0.3949    0.010597
    0.3950    0.011543
    0.3951    0.012489
    0.3952    0.013435
    0.3953    0.015312
    0.3954    0.017267
    0.3955    0.019222
    0.3956    0.021177
    0.3957    0.023132
    0.3958    0.026817
    0.3959    0.031392
    0.3960    0.035968
    0.3961    0.040543
    0.3962    0.045118
    0.3963    0.049694
    0.3964    0.054448
    0.3965    0.061756
    0.3966    0.069064
    0.3967    0.076373
    0.3968    0.083681
    0.3969    0.090989
    0.3970    0.098298
    0.3971    0.106501
    0.3972    0.115138
    0.3973    0.123776
    0.3974    0.132414
    0.3975    0.141051
    0.3976    0.149689
    0.3977    0.158327
    0.3978    0.166964
    0.3979    0.175386
    0.3980    0.183497
    0.3981    0.191609
    0.3982    0.199720
    0.3983    0.208438
    0.3984    0.217420
    0.3985    0.226403
    0.3986    0.235385
    0.3987    0.244367
    0.3988    0.253349
    0.3989    0.263848
    0.3990    0.277885
    0.3991    0.291922
    0.3992    0.305959
    0.3993    0.319996
    0.3994    0.334714
    0.3995    0.354645
    0.3996    0.374576
    0.3997    0.394508
    0.3998    0.414439
    0.3999    0.434370
    0.4000    0.454301
    0.4001    0.475640
    0.4002    0.498185
    0.4003    0.520730
    0.4004    0.543275
    0.4005    0.565819
    0.4006    0.588364
    0.4007    0.607794
    0.4008    0.624011
    0.4009    0.640229
    0.4010    0.656447
    0.4011    0.672665
    0.4012    0.688883
    0.4013    0.705100
    0.4014    0.715313
    0.4015    0.718729
    0.4016    0.722145
    0.4017    0.725560
    0.4018    0.728976
    0.4019    0.732392
    0.4020    0.735808
    0.4021    0.734024
    0.4022    0.731588
    0.4023    0.729153
    0.4024    0.726717
    0.4025    0.724281
    0.4026    0.721845
    0.4027    0.719409
    0.4028    0.720848
    0.4029    0.726947
    0.4030    0.733046
    0.4031    0.739145
    0.4032    0.745244
    0.4033    0.751343
    0.4034    0.757442
    0.4035    0.763541
    0.4036    0.769641
    0.4037    0.775740
    0.4038    0.779685
    0.4039    0.781192
    0.4040    0.782699
    0.4041    0.784205
    0.4042    0.785712
    0.4043    0.787218
    0.4044    0.790461
    0.4045    0.795018
    0.4046    0.799576
    0.4047    0.804133
    0.4048    0.808691
    0.4049    0.813248
    0.4050    0.817806
    0.4051    0.821601
    0.4052    0.825301
    0.4053    0.829001
    0.4054    0.832701
    0.4055    0.836401
    0.4056    0.840101
    0.4057    0.843126
    0.4058    0.845053
    0.4059    0.846980
    0.4060    0.848908
    0.4061    0.850835
    0.4062    0.852762
    0.4063    0.854689
    0.4064    0.856616
    0.4065    0.857500
    0.4066    0.857823
    0.4067    0.858145
    0.4068    0.858468
    0.4069    0.858790
    0.4070    0.859113
    0.4071    0.859451
    0.4072    0.860140
    0.4073    0.860830
    0.4074    0.861519
    0.4075    0.862208
    0.4076    0.862898
    0.4077    0.863587
    0.4078    0.864361
    0.4079    0.865956
    0.4080    0.867551
    0.4081    0.869146
    0.4082    0.870741
    0.4083    0.872336
    0.4084    0.873931
    0.4085    0.875658
    0.4086    0.878234
    0.4087    0.880810
    0.4088    0.883385
    0.4089    0.885961
    0.4090    0.888537
    0.4091    0.891113
    0.4092    0.893750
    0.4093    0.896405
    0.4094    0.899060
    0.4095    0.901715
    0.4096    0.904370
    0.4097    0.907025
    0.4098    0.909680
    0.4099    0.912335
    0.4100    0.914908
    0.4101    0.917404
    0.4102    0.919900
    0.4103    0.922396
    0.4104    0.924891
    0.4105    0.927387
    0.4106    0.930024
    0.4107    0.933129
    0.4108    0.936235
    0.4109    0.939341
    0.4110    0.942446
    0.4111    0.945552
    0.4112    0.948658
    0.4113    0.951763
    0.4114    0.954869
    0.4115    0.958883
    0.4116    0.963003
    0.4117    0.967124
    0.4118    0.971244
    0.4119    0.975363
    0.4120    0.979483
    0.4121    0.983604
    0.4122    0.986106
    0.4123    0.988091
    0.4124    0.990076
    0.4125    0.992061
    0.4126    0.994045
    0.4127    0.996030
    0.4128    0.998015
    0.4129    1.000000
    0.4130    0.998079
    0.4131    0.994631
    0.4132    0.991183
    0.4133    0.987735
    0.4134    0.984288
    0.4135    0.980840
    0.4136    0.977392
    0.4137    0.972592
    0.4138    0.967284
    0.4139    0.961976
    0.4140    0.956669
    0.4141    0.951361
    0.4142    0.946053
    0.4143    0.940746
    0.4144    0.935438
    0.4145    0.931692
    0.4146    0.929739
    0.4147    0.927787
    0.4148    0.925835
    0.4149    0.923882
    0.4150    0.921930
    0.4151    0.922461
    0.4152    0.924521
    0.4153    0.926580
    0.4154    0.928639
    0.4155    0.930698
    0.4156    0.932757
    0.4157    0.934816
    0.4158    0.936876
    0.4159    0.940961
    0.4160    0.945707
    0.4161    0.950454
    0.4162    0.955200
    0.4163    0.959946
    0.4164    0.964692
    0.4165    0.969218
    0.4166    0.973675
    0.4167    0.978132
    0.4168    0.982589
    0.4169    0.987046
    0.4170    0.991503
    0.4171    0.995960
    0.4172    0.996080
    0.4173    0.995739
    0.4174    0.995399
    0.4175    0.995058
    0.4176    0.994717
    0.4177    0.994377
    0.4178    0.994036
    0.4179    0.993695
    0.4180    0.993355
    0.4181    0.986781
    0.4182    0.979798
    0.4183    0.972815
    0.4184    0.965832
    0.4185    0.958849
    0.4186    0.951866
    0.4187    0.944883
    0.4188    0.933587
    0.4189    0.919926
    0.4190    0.906264
    0.4191    0.892603
    0.4192    0.878942
    0.4193    0.865281
    0.4194    0.851620
    0.4195    0.837959
    0.4196    0.813367
    0.4197    0.788292
    0.4198    0.763216
    0.4199    0.738140
    0.4200    0.713065
    0.4201    0.687989
    0.4202    0.662913
    0.4203    0.637838
    0.4204    0.610728
    0.4205    0.575482
    0.4206    0.540236
    0.4207    0.504989
    0.4208    0.469743
    0.4209    0.434497
    0.4210    0.399251
    0.4211    0.370511
    0.4212    0.341981
    0.4213    0.313450
    0.4214    0.284919
    0.4215    0.256389
    0.4216    0.227858
    0.4217    0.205022
    0.4218    0.191306
    0.4219    0.177589
    0.4220    0.163873
    0.4221    0.150157
    0.4222    0.136441
    0.4223    0.122724
    0.4224    0.116665
    0.4225    0.110878
    0.4226    0.105092
    0.4227    0.099305
    0.4228    0.093519
    0.4229    0.087732
    0.4230    0.082290
    0.4231    0.079708
    0.4232    0.077127
    0.4233    0.074545
    0.4234    0.071964
    0.4235    0.069382
    0.4236    0.066801
    0.4237    0.064333
    0.4238    0.062575
    0.4239    0.060816
    0.4240    0.059058
    0.4241    0.057299
    0.4242    0.055541
    0.4243    0.053782
    0.4244    0.051916
    0.4245    0.049941
    0.4246    0.047966
    0.4247    0.045991
    0.4248    0.044016
    0.4249    0.042041
    0.4250    0.039934
    0.4251    0.037688
    0.4252    0.035442
    0.4253    0.033196
    0.4254    0.030949
    0.4255    0.028703
    0.4256    0.026469
    0.4257    0.024662
    0.4258    0.022855
    0.4259    0.021048
    0.4260    0.019241
    0.4261    0.017434
    0.4262    0.015628
    0.4263    0.013919
    0.4264    0.013032
    0.4265    0.012144
    0.4266    0.011256
    0.4267    0.010368
    0.4268    0.009480
    0.4269    0.008593
    0.4270    0.007705
    0.4271    0.007028
    0.4272    0.006577
    0.4273    0.006126
    0.4274    0.005675
    0.4275    0.005224
